TwoTheta	Intensity
3.9986	107.6303162
4.0249	99.7007979
4.0512	96.8925504
4.0774	91.5294752
4.1037	88.9148679
4.13	85.82553
4.1563	83.0387177
4.1825	81.99373
4.2088	79.6599576
4.2351	75.7913496
4.2613	77.9476996
4.2876	73.918224
4.3139	73.2025691
4.3402	75.454377
4.3664	73.639336
4.3927	70.8762145
4.419	67.805136
4.4453	72.5606319
4.4715	74.0614545
4.4978	68.7308818
4.5241	68.6170247
4.5503	67.7312155
4.5766	67.6009586
4.6029	67.1240907
4.6292	67.4613316
4.6554	65.9996058
4.6817	65.7404314
4.708	67.72458
4.7342	68.3523796
4.7605	67.1944575
4.7868	70.8542136
4.8131	66.6325564
4.8393	65.8338372
4.8656	67.0528336
4.8919	65.2237027
4.9182	67.9350966
4.9444	66.0275176
4.9707	67.3132194
4.997	64.386345
5.0232	66.607632
5.0495	67.2744885
5.0758	64.767208
5.1021	64.1487033
5.1283	66.2935341
5.1546	63.2520966
5.1809	66.004666
5.2071	65.036679
5.2334	63.7846792
5.2597	63.3899044
5.286	61.227738
5.3122	64.5751032
5.3385	63.9498915
5.3648	65.4398304
5.3911	63.7389753
5.4173	62.4668863
5.4436	61.2405
5.4699	65.8685358
5.4961	63.6063653
5.5224	63.6787944
5.5487	62.5393977
5.575	68.238
5.6012	63.769662
5.6275	63.07302
5.6538	64.8434322
5.68	65.85392
5.7063	64.4355396
5.7326	63.115926
5.7589	61.5511232
5.7851	67.3096385
5.8114	64.7738644
5.8377	62.813652
5.864	63.284288
5.8902	66.7536366
5.9165	67.5486805
5.9428	67.7241488
5.969	69.514974
5.9953	65.9483
6.0216	69.1219464
6.0479	65.7709125
6.0741	68.1453279
6.1004	67.927954
6.1267	66.8177902
6.1529	67.8111109
6.1792	70.6097184
6.2055	66.1940685
6.2318	66.99185
6.258	70.014504
6.2843	66.9655008
6.3106	72.1112262
6.3369	66.3410061
6.3631	72.3802625
6.3894	68.0215524
6.4157	68.968775
6.4419	67.7752299
6.4682	68.1166142
6.4945	67.1076685
6.5208	71.3897184
6.547	71.264095
6.5733	71.2808652
6.5996	72.1864248
6.6258	68.8818168
6.6521	73.1731
6.6784	69.221616
6.7047	68.3745306
6.7309	74.107209
6.7572	72.9912744
6.7835	69.883617
6.8098	71.0806924
6.836	71.921556
6.8623	74.6275125
6.8886	72.0409788
6.9148	72.0314716
6.9411	70.1328744
6.9674	70.1826202
6.9937	71.3916896
7.0199	75.463925
7.0462	78.2410048
7.0725	75.5130825
7.0987	79.4912426
7.125	76.372875
7.1513	71.9635319
7.1776	76.7859648
7.2038	82.2457846
7.2301	82.6183527
7.2564	81.4821156
7.2827	79.8839363
7.3089	84.5858997
7.3352	81.4500608
7.3615	78.9815335
7.3877	78.6494542
7.414	78.543916
7.4403	83.3164794
7.4666	82.8344604
7.4928	83.2000512
7.5191	82.3942978
7.5454	85.753471
7.5717	83.6067114
7.5979	87.2162941
7.6242	82.2803664
7.6505	85.1118125
7.6767	89.3184045
7.703	82.244931
7.7293	84.4580611
7.7556	82.8065412
7.7818	86.4091072
7.8081	86.1311511
7.8344	86.3429224
7.8606	86.8753512
7.8869	91.9297064
7.9132	89.8464728
7.9395	87.5806245
7.9657	93.8439117
7.992	94.905
8.0183	90.8713939
8.0446	90.0834308
8.0708	91.9748368
8.0971	94.5498367
8.1234	93.0779172
8.1496	93.4677624
8.1759	95.2982904
8.2022	95.1783288
8.2285	91.797146
8.2547	102.6719586
8.281	98.593586
8.3073	89.7354546
8.3335	94.101882
8.3598	100.0584462
8.3861	106.1344816
8.4124	104.7175552
8.4386	102.9340428
8.4649	97.34635
8.4912	98.625288
8.5175	100.88127
8.5437	103.3275078
8.57	102.48006
8.5963	106.8262201
8.6225	98.624155
8.6488	105.9478
8.6751	98.2281573
8.7014	105.2347316
8.7276	107.7334944
8.7539	103.7687306
8.7802	115.5123112
8.8064	99.7148672
8.8327	102.8656242
8.859	109.080867
8.8853	105.8861201
8.9115	108.0519375
8.9378	112.3749594
8.9641	108.5014664
8.9904	112.8475008
9.0166	112.2386368
9.0429	118.4981616
9.0692	108.921092
9.0954	107.5349142
9.1217	116.392892
9.148	109.776
9.1743	109.7062794
9.2005	113.570972
9.2268	109.475982
9.2531	109.3994013
9.2793	114.6364722
9.3056	112.4395648
9.3319	114.0264861
9.3582	115.0309944
9.3844	114.1799948
9.4107	109.6911192
9.437	109.799495
9.4633	111.7899629
9.4895	119.510763
9.5158	117.758025
9.5421	113.6082426
9.5683	110.2363843
9.5946	118.0327692
9.6209	114.3443965
9.6472	119.0850368
9.6734	121.6236582
9.6997	115.1839375
9.726	120.660756
9.7522	115.807375
9.7785	111.435786
9.8048	121.6383488
9.8311	114.5913016
9.8573	115.3106954
9.8836	112.2183944
9.9099	119.3350158
9.9362	112.4082306
9.9624	116.4405312
9.9887	116.9476996
10.015	119.869535
10.0412	112.7526348
10.0675	119.23947
10.0938	114.5040672
10.1201	117.0187163
10.1463	114.044412
10.1726	121.4404988
10.1989	117.7157038
10.2251	119.0815146
10.2514	118.2088934
10.2777	114.8738529
10.304	114.096192
10.3302	118.7973
10.3565	113.7040135
10.3828	113.9927612
10.4091	118.0808304
10.4353	110.2280739
10.4616	111.259116
10.4879	112.3044332
10.5141	119.7030285
10.5404	111.2223008
10.5667	113.9195927
10.593	116.300547
10.6192	117.3633984
10.6455	121.6461285
10.6718	113.281157
10.698	114.778842
10.7243	117.6348467
10.7506	105.9364124
10.7769	109.4501964
10.8031	111.2935362
10.8294	111.4561848
10.8557	113.0838269
10.882	106.556544
10.9082	116.2377792
10.9345	112.537874
10.9608	104.3577768
10.987	116.506148
11.0133	108.5250582
11.0396	102.4585276
11.0659	109.0433786
11.0921	110.921
11.1184	107.0146
11.1447	105.986097
11.1709	99.4880354
11.1972	107.3027676
11.2235	101.7185805
11.2498	106.0518646
11.276	102.419908
11.3023	103.0204645
11.3286	109.037775
11.3549	100.0707337
11.3811	102.7827141
11.4074	108.6098554
11.4337	101.3597505
11.4599	102.1879283
11.4862	103.7318722
11.5125	100.0206
11.5388	104.8069204
11.565	97.943985
11.5913	97.3205548
11.6176	105.0463392
11.6438	107.9496698
11.6701	105.7661163
11.6964	97.1035128
11.7227	96.9584517
11.7489	94.7313807
11.7752	97.3926792
11.8015	97.7282215
11.8278	108.4254426
11.854	93.46879
11.8803	102.9665601
11.9066	98.4794886
11.9328	99.1973664
11.9591	101.771941
11.9854	97.0098276
12.0117	96.8503371
12.0379	91.0426377
12.0642	93.2442018
12.0905	93.9552755
12.1167	93.783258
12.143	95.626125
12.1693	96.2104858
12.1956	95.1500712
12.2218	97.652182
12.2481	91.1013678
12.2744	87.9706248
12.3007	91.3572989
12.3269	98.0974702
12.3532	92.772532
12.3795	88.7238765
12.4057	92.0130769
12.432	87.807216
12.4583	86.5602684
12.4846	85.956471
12.5108	90.3154652
12.5371	82.6696374
12.5634	89.639859
12.5896	83.4061
12.6159	86.4693786
12.6422	81.9088138
12.6685	82.471935
12.6947	89.9165601
12.721	85.205258
12.7473	87.6376875
12.7736	93.2728272
12.7998	90.9297792
12.8261	87.2431322
12.8524	90.3652244
12.8786	89.3517268
12.9049	89.2631933
12.9312	87.5571552
12.9575	88.2794475
12.9837	89.6654322
13.01	87.9476
13.0363	83.1064125
13.0625	86.5390625
13.0888	78.2579352
13.1151	89.7597444
13.1414	84.8671612
13.1676	85.721076
13.1939	85.2062062
13.2202	89.104148
13.2465	79.0683585
13.2727	81.1625605
13.299	85.060404
13.3253	81.0577999
13.3515	84.9822975
13.3778	85.6981868
13.4041	82.5156396
13.4304	83.2416192
13.4566	83.6865954
13.4829	80.4794301
13.5092	85.5537636
13.5354	89.807379
13.5617	81.6549957
13.588	83.797196
13.6143	88.0709067
13.6405	89.5226015
13.6668	84.7068264
13.6931	89.5802602
13.7194	95.4595852
13.7456	97.5112864
13.7719	93.9656737
13.7982	101.0442186
13.8244	100.8075248
13.8507	104.6004864
13.877	110.155626
13.9033	123.8227898
13.9295	143.9335235
13.9558	173.8613564
13.9821	228.6632634
14.0083	304.540442
14.0346	415.3399524
14.0609	507.3594547
14.0872	595.325072
14.1134	589.375584
14.1397	481.1881307
14.166	373.48659
14.1923	274.5358512
14.2185	199.201185
14.2448	154.4706112
14.2711	121.9037362
14.2973	115.8653192
14.3236	101.0100272
14.3499	97.6080198
14.3762	101.2372004
14.4024	95.8623744
14.4287	92.7332549
14.455	93.35039
14.4812	90.0585828
14.5075	87.9589725
14.5338	97.957812
14.5601	85.5405875
14.5863	76.578075
14.6126	86.7696188
14.6389	82.4902015
14.6652	86.4660192
14.6914	87.6929666
14.7177	83.7142776
14.744	79.39644
14.7702	77.54355
14.7965	75.6840975
14.8228	82.9187432
14.8491	86.0059872
14.8753	81.81415
14.9016	83.672484
14.9279	81.3271992
14.9542	76.1766948
14.9804	82.542004
15.0067	85.6582436
15.033	85.507704
15.0592	81.5756864
15.0855	79.34973
15.1118	86.1070364
15.1381	83.25955
15.1643	78.6723884
15.1906	84.5053078
15.2169	77.8344435
15.2431	84.6296912
15.2694	79.5230352
15.2957	83.0097639
15.322	82.830732
15.3482	85.2132064
15.3745	79.762906
15.4008	79.7299416
15.4271	80.6683059
15.4533	79.1981625
15.4796	81.7477676
15.5059	84.6312022
15.5321	86.5603933
15.5584	83.470816
15.5847	82.1469537
15.611	81.95775
15.6372	80.7974124
15.6635	78.975367
15.6898	89.5573784
15.716	87.585268
15.7423	78.3809117
15.7686	80.814075
15.7949	75.6891608
15.8211	89.8163847
15.8474	84.1972362
15.8737	83.0035773
15.9	85.3035
15.9262	93.407163
15.9525	86.239215
15.9788	82.7222476
16.005	85.53072
16.0313	84.004012
16.0576	82.6324096
16.0839	85.7754387
16.1101	83.4019877
16.1364	84.3772356
16.1627	85.1935917
16.1889	87.3553044
16.2152	91.7131712
16.2415	87.639134
16.2678	88.7896524
16.294	84.011864
16.3203	81.6015
16.3466	80.3762322
16.3729	85.793996
16.3991	83.1926343
16.4254	86.9232168
16.4517	87.0623964
16.4779	83.4276077
16.5042	91.6313184
16.5305	86.4379845
16.5568	84.3403392
16.583	88.619552
16.6093	87.8964156
16.6356	88.9006464
16.6618	84.3586934
16.6881	86.2274127
16.7144	83.9230024
16.7407	90.6843719
16.7669	85.5782576
16.7932	81.3462608
16.8195	89.6983935
16.8458	89.6701934
16.872	92.272968
16.8983	90.4734982
16.9246	86.3831584
16.9508	92.8734332
16.9771	86.2945993
17.0034	93.348666
17.0297	95.6217655
17.0559	85.108941
17.0822	79.3639012
17.1085	90.538182
17.1347	91.5678368
17.161	90.26686
17.1873	90.233325
17.2136	90.543536
17.2398	93.1983588
17.2661	86.503161
17.2924	84.6635904
17.3187	85.8661146
17.3449	84.9206304
17.3712	86.1264096
17.3975	87.5268225
17.4237	89.8365972
17.45	93.06085
17.4763	88.1155046
17.5026	88.4231352
17.5288	87.644
17.5551	96.377499
17.5814	87.907
17.6076	88.038
17.6339	96.6161381
17.6602	83.709348
17.6865	97.27575
17.7127	87.8195666
17.739	81.297837
17.7653	88.0803574
17.7916	87.4812972
17.8178	83.1556726
17.8441	88.1141658
17.8704	84.8844
17.8966	90.4136232
17.9229	91.8548625
17.9492	90.6793584
17.9755	96.4385575
18.0017	90.5665527
18.028	87.129324
18.0543	92.5282875
18.0805	86.822561
18.1068	84.6855036
18.1331	91.9892163
18.1594	94.3925612
18.1856	98.3113536
18.2119	94.2830063
18.2382	97.0819386
18.2645	95.3224255
18.2907	89.5512672
18.317	95.779593
18.3433	95.9171157
18.3695	87.8245795
18.3958	98.693467
18.4221	95.7580758
18.4484	92.426484
18.4746	96.6036834
18.5009	92.689509
18.5272	89.5419576
18.5534	93.3421554
18.5797	91.5421819
18.606	94.574298
18.6323	93.5527783
18.6585	98.740782
18.6848	84.4739808
18.7111	93.742611
18.7374	90.1831062
18.7636	93.0299288
18.7899	90.8115867
18.8162	101.325237
18.8424	90.0855144
18.8687	97.0983302
18.895	95.854335
18.9213	102.0993348
18.9475	93.75223
18.9738	97.050987
19.0001	95.0005
19.0263	94.941237
19.0526	99.835624
19.0789	98.7714653
19.1052	101.6969796
19.1314	102.2382016
19.1577	103.7772609
19.184	97.512272
19.2103	98.0493712
19.2365	94.181904
19.2628	107.5442124
19.2891	97.8536043
19.3153	91.3420537
19.3416	98.3133528
19.3679	95.6386902
19.3942	98.3867766
19.4204	88.6152852
19.4467	101.900708
19.473	99.390192
19.4992	102.565792
19.5255	95.3820675
19.5518	97.563482
19.5781	95.8543776
19.6043	108.019693
19.6306	88.141394
19.6569	102.5893611
19.6832	88.1610528
19.7094	102.4494612
19.7357	105.2504881
19.762	104.995506
19.7882	96.0519228
19.8145	108.3655005
19.8408	100.8507864
19.8671	105.1366932
19.8933	102.3709218
19.9196	103.1237692
19.9459	108.6652632
19.9721	102.5567335
19.9984	103.7516992
20.0247	103.4676249
20.051	115.09274
20.0772	132.5898288
20.1035	133.808896
20.1298	124.7645004
20.1561	160.2006828
20.1823	183.3158309
20.2086	211.1394528
20.2349	224.6883296
20.2611	233.00265
20.2874	240.0608042
20.3137	212.0344006
20.34	195.9759
20.3662	158.8970924
20.3925	139.1380275
20.4188	120.164638
20.445	132.68805
20.4713	116.2155701
20.4976	119.7879744
20.5239	115.8779394
20.5501	107.0249208
20.5764	108.8903088
20.6027	110.9455395
20.629	99.926876
20.6552	103.276
20.6815	111.1630625
20.7078	104.1809418
20.734	111.23791
20.7603	105.5246049
20.7866	89.6526058
20.8129	96.6967334
20.8391	107.6756297
20.8654	111.0665242
20.8917	109.681425
20.9179	109.818975
20.9442	102.5428032
20.9705	99.40017
20.9968	104.774032
21.023	109.719037
21.0493	111.6033886
21.0756	109.7617248
21.1019	103.5259214
21.1281	99.7035039
21.1544	105.772
21.1807	112.3000714
21.2069	108.2400176
21.2332	114.7866792
21.2595	98.3251875
21.2858	101.10755
21.312	111.227328
21.3383	104.6856998
21.3646	113.9374118
21.3908	103.8309432
21.4171	104.1941915
21.4434	109.897425
21.4697	113.6176524
21.4959	108.5972868
21.5222	103.5863486
21.5485	112.6771065
21.5748	106.2990396
21.601	117.466238
21.6273	112.4187054
21.6536	106.9254768
21.6798	111.325773
21.7061	105.3614094
21.7324	115.6815652
21.7587	111.2957505
21.7849	111.4297635
21.8112	102.4690176
21.8375	105.1038875
21.8637	115.2435627
21.89	115.38219
21.9163	106.1625572
21.9426	116.8004598
21.9688	113.0514448
21.9951	105.8624163
22.0214	118.365025
22.0477	107.0195358
22.0739	112.6651856
22.1002	108.8876854
22.1265	111.0971565
22.1527	105.446852
22.179	109.519902
22.2053	115.4231494
22.2316	111.380316
22.2578	114.5386388
22.2841	111.4205
22.3104	117.5981184
22.3366	113.3135718
22.3629	111.590871
22.3892	106.124808
22.4155	115.1035925
22.4417	112.9041927
22.468	114.676672
22.4943	111.5267394
22.5206	110.7337902
22.5468	116.2513008
22.5731	113.5652661
22.5994	119.5960248
22.6256	115.2548064
22.6519	113.2595
22.6782	111.2592492
22.7045	113.749545
22.7307	123.6095466
22.757	114.01257
22.7833	127.1991639
22.8096	115.7131008
22.8358	112.5119866
22.8621	102.87945
22.8884	120.8736404
22.9146	119.1100908
22.9409	117.8015215
22.9672	118.9011944
22.9935	115.6802985
23.0197	115.328697
23.046	122.443398
23.0723	114.3924634
23.0985	111.6350505
23.1248	110.074048
23.1511	118.1632144
23.1774	113.4765504
23.2036	115.2986884
23.2299	104.766849
23.2562	112.6530328
23.2825	115.20181
23.3087	116.0540173
23.335	120.31526
23.3613	123.3710253
23.3875	123.2755125
23.4138	121.7049324
23.4401	125.4982954
23.4664	109.7523528
23.4926	111.354924
23.5189	116.3715172
23.5452	121.3990512
23.5714	125.9655616
23.5977	122.1652929
23.624	124.26224
23.6503	128.3501781
23.6765	127.0244225
23.7028	114.5556324
23.7291	120.8760354
23.7554	127.447721
23.7816	114.1992432
23.8079	119.277579
23.8342	118.4321398
23.8604	121.5448776
23.8867	126.4084164
23.913	124.299774
23.9393	125.1785997
23.9655	121.3373265
23.9918	124.4694584
24.0181	122.8525815
24.0443	121.9767339
24.0706	128.8739924
24.0969	127.2557289
24.1232	127.1533872
24.1494	124.2728124
24.1757	131.9509706
24.202	122.268504
24.2283	138.0528534
24.2545	130.3679375
24.2808	136.0696032
24.3071	139.765825
24.3333	141.6928059
24.3596	143.6242016
24.3859	163.0928992
24.4122	177.5011062
24.4384	190.1551904
24.4647	187.3017432
24.491	245.424311
24.5172	301.3654224
24.5435	339.780214
24.5698	411.54415
24.5961	514.7225847
24.6223	500.6452259
24.6486	484.2463956
24.6749	408.4189448
24.7012	330.625562
24.7274	285.4036508
24.7537	212.2134701
24.78	189.46788
24.8062	166.3999896
24.8325	163.745505
24.8588	157.7042272
24.8851	152.9438246
24.9113	137.7844003
24.9376	136.6331104
24.9639	143.792064
24.9901	136.9207579
25.0164	138.6408888
25.0427	134.0786158
25.069	136.325222
25.0952	128.6129
25.1215	126.1350515
25.1478	128.882475
25.1741	130.0745747
25.2003	135.1996095
25.2266	136.9047582
25.2529	138.1081101
25.2791	139.03505
25.3054	130.7530018
25.3317	126.911817
25.358	132.87592
25.3842	136.693917
25.4105	135.793712
25.4368	140.4365728
25.463	130.752505
25.4893	132.7482744
25.5156	120.4081164
25.5419	138.6158913
25.5681	135.0251361
25.5944	122.1108824
25.6207	135.3029167
25.647	145.059432
25.6732	137.99345
25.6995	130.913253
25.7258	126.7510166
25.752	133.601376
25.7783	140.4401784
25.8046	136.8159892
25.8309	137.4978807
25.8571	129.2855
25.8834	137.5185042
25.9097	126.0506905
25.9359	141.5581422
25.9622	150.0874782
25.9885	129.682615
26.0148	126.0156912
26.041	139.163104
26.0673	142.2753234
26.0936	146.515564
26.1199	132.7674517
26.1461	142.4439528
26.1724	147.21975
26.1987	130.731513
26.2249	142.6110062
26.2512	135.3511872
26.2775	137.1422725
26.3038	141.382925
26.33	137.12664
26.3563	134.8124745
26.3826	144.840474
26.4088	142.5018848
26.4351	136.8545127
26.4614	139.7426534
26.4877	138.5041833
26.5139	142.7773515
26.5402	145.4137558
26.5665	136.711209
26.5928	134.9052744
26.619	141.692937
26.6453	135.7311582
26.6716	132.5311804
26.6978	154.9006356
26.7241	147.5437561
26.7504	143.7834
26.7767	136.1059661
26.8029	142.6718367
26.8292	140.0215948
26.8555	149.3971465
26.8817	151.7740782
26.908	133.140784
26.9343	139.4388711
26.9606	141.812756
26.9868	143.3808684
27.0131	138.4421375
27.0394	152.367019
27.0657	152.8129422
27.0919	141.6635451
27.1182	140.9604036
27.1445	142.508625
27.1707	148.2976806
27.197	139.656595
27.2233	156.806208
27.2496	150.4450416
27.2758	153.699133
27.3021	159.8264934
27.3284	147.4640464
27.3546	148.7543148
27.3809	149.4449522
27.4072	152.4662536
27.4335	138.8958105
27.4597	139.8797118
27.486	136.000728
27.5123	145.2924563
27.5386	135.9856068
27.5648	149.3185216
27.5911	147.4468384
27.6174	159.6561894
27.6436	143.4149968
27.6699	153.0422169
27.6962	155.791125
27.7225	148.14904
27.7487	154.0607824
27.775	153.04025
27.8013	150.0158148
27.8275	156.8079625
27.8538	143.3356548
27.8801	151.8907848
27.9064	157.5595344
27.9326	157.120875
27.9589	155.2278128
27.9852	150.42045
28.0115	153.1948935
28.0377	174.955248
28.064	157.86
28.0903	157.7270345
28.1165	170.7515045
28.1428	169.7292268
28.1691	165.4934625
28.1954	164.1818142
28.2216	189.3104928
28.2479	177.7357868
28.2742	175.2434916
28.3004	197.2254876
28.3267	208.9094125
28.353	241.595913
28.3793	260.4368361
28.4055	318.368844
28.4318	379.6782572
28.4581	452.3699576
28.4844	522.8026776
28.5106	537.852469
28.5369	545.1689376
28.5632	490.0302592
28.5894	430.6421322
28.6157	331.4556531
28.642	275.077768
28.6683	253.8291282
28.6945	207.1455955
28.7208	189.988092
28.7471	197.9237835
28.7733	183.7175205
28.7996	174.6119748
28.8259	201.493041
28.8522	187.827822
28.8784	187.7096
28.9047	187.591503
28.931	189.555912
28.9573	209.940425
28.9835	202.2758465
29.0098	231.788302
29.0361	267.6838059
29.0623	295.1567188
29.0886	391.7943534
29.1149	473.408274
29.1412	548.5248076
29.1674	650.1996808
29.1937	634.0579703
29.22	582.26694
29.2462	514.2359346
29.2725	393.949305
29.2988	316.4856376
29.3251	253.5448146
29.3513	226.8561977
29.3776	194.332824
29.4039	185.9208597
29.4302	177.1992342
29.4564	177.032964
29.4827	176.8962
29.509	167.522593
29.5352	166.7557392
29.5615	169.3578335
29.5878	160.8984564
29.6141	155.474025
29.6403	179.0866926
29.6666	153.2873222
29.6929	167.3194915
29.7191	171.8061171
29.7454	157.7101108
29.7717	157.8495534
29.798	163.59102
29.8242	171.787392
29.8505	164.476255
29.8768	160.5878
29.9031	164.766081
29.9293	166.4966959
29.9556	166.3134912
29.9819	158.0345949
30.0081	164.1142989
30.0344	155.1877448
30.0607	162.5081442
30.087	164.545803
30.1132	155.5949044
30.1395	165.465855
30.1658	154.599725
30.192	156.002064
30.2183	153.9320202
30.2446	165.0750268
30.2709	170.5765215
30.2971	166.63405
30.3234	154.1338422
30.3497	159.639422
30.376	155.37324
30.4022	178.916947
30.4285	157.863058
30.4548	160.192248
30.481	166.060488
