TwoTheta Intensity
3.9986 33.188
4.0249 31.833
4.0512 29.313
4.0774 29.542
4.1037 28.271
4.1300 26.146
4.1563 25.958
4.1825 24.729
4.2088 23.896
4.2351 24.427
4.2613 23.177
4.2876 23.365
4.3139 23.188
4.3402 22.375
4.3664 22.865
4.3927 21.646
4.4190 20.896
4.4453 20.979
4.4715 21.156
4.4978 20.875
4.5241 21.094
4.5503 20.708
4.5766 21.333
4.6029 20.438
4.6292 20.594
4.6554 21.198
4.6817 20.073
4.7080 19.792
4.7342 19.979
4.7605 19.521
4.7868 19.771
4.8131 18.781
4.8393 19.188
4.8656 20.625
4.8919 18.854
4.9182 19.469
4.9444 18.969
4.9707 19.010
4.9970 17.875
5.0232 18.563
5.0495 18.688
5.0758 18.281
5.1021 18.042
5.1283 17.417
5.1546 18.792
5.1809 18.594
5.2071 16.802
5.2334 17.656
5.2597 17.469
5.2860 17.406
5.3122 17.448
5.3385 17.510
5.3648 17.271
5.3911 16.646
5.4173 17.510
5.4436 16.885
5.4699 16.802
5.4961 17.042
5.5224 16.167
5.5487 17.313
5.5750 16.052
5.6012 15.979
5.6275 16.250
5.6538 17.156
5.6800 17.333
5.7063 16.927
5.7326 16.385
5.7589 17.042
5.7851 15.917
5.8114 16.427
5.8377 15.490
5.8640 16.573
5.8902 16.542
5.9165 16.292
5.9428 15.719
5.9690 15.125
5.9953 17.115
6.0216 16.604
6.0479 16.229
6.0741 16.479
6.1004 16.063
6.1267 16.927
6.1529 16.073
6.1792 15.979
6.2055 17.115
6.2318 17.313
6.2580 15.771
6.2843 16.479
6.3106 16.073
6.3369 16.396
6.3631 16.667
6.3894 16.969
6.4157 15.938
6.4419 16.156
6.4682 16.375
6.4945 16.104
6.5208 16.990
6.5470 16.990
6.5733 17.135
6.5996 16.719
6.6258 15.771
6.6521 16.552
6.6784 17.417
6.7047 17.354
6.7309 16.417
6.7572 16.833
6.7835 16.698
6.8098 16.469
6.8360 16.813
6.8623 17.302
6.8886 16.479
6.9148 16.375
6.9411 16.719
6.9674 16.708
6.9937 17.500
7.0199 17.333
7.0462 17.010
7.0725 17.010
7.0987 17.073
7.1250 16.583
7.1513 17.604
7.1776 16.823
7.2038 17.250
7.2301 17.500
7.2564 17.438
7.2827 16.958
7.3089 17.042
7.3352 16.719
7.3615 16.792
7.3877 16.760
7.4140 17.823
7.4403 16.823
7.4666 18.125
7.4928 17.594
7.5191 16.563
7.5454 16.313
7.5717 16.927
7.5979 16.667
7.6242 17.885
7.6505 18.167
7.6767 17.333
7.7030 17.115
7.7293 16.927
7.7556 17.375
7.7818 17.458
7.8081 17.667
7.8344 16.875
7.8606 16.990
7.8869 17.042
7.9132 16.958
7.9395 17.302
7.9657 17.344
7.9920 17.104
8.0183 17.094
8.0446 17.010
8.0708 16.896
8.0971 17.927
8.1234 16.958
8.1496 17.177
8.1759 17.010
8.2022 17.448
8.2285 16.938
8.2547 16.792
8.2810 17.417
8.3073 16.906
8.3335 16.938
8.3598 17.531
8.3861 17.063
8.4124 16.021
8.4386 17.333
8.4649 17.729
8.4912 16.969
8.5175 16.938
8.5437 16.688
8.5700 16.875
8.5963 16.365
8.6225 16.448
8.6488 15.781
8.6751 16.083
8.7014 16.104
8.7276 16.042
8.7539 16.354
8.7802 17.135
8.8064 17.365
8.8327 16.396
8.8590 15.875
8.8853 16.302
8.9115 16.000
8.9378 16.240
8.9641 15.917
8.9904 15.750
9.0166 15.677
9.0429 14.948
9.0692 15.875
9.0954 15.521
9.1217 15.792
9.1480 15.719
9.1743 15.573
9.2005 15.938
9.2268 14.844
9.2531 16.021
9.2793 15.448
9.3056 15.708
9.3319 14.958
9.3582 15.708
9.3844 15.010
9.4107 15.073
9.4370 14.750
9.4633 14.417
9.4895 14.938
9.5158 14.500
9.5421 14.531
9.5683 14.448
9.5946 14.073
9.6209 14.458
9.6472 14.427
9.6734 14.208
9.6997 14.635
9.7260 14.042
9.7522 13.969
9.7785 14.104
9.8048 14.052
9.8311 13.802
9.8573 13.906
9.8836 13.792
9.9099 14.167
9.9362 13.427
9.9624 14.010
9.9887 12.802
10.0150 13.240
10.0412 13.219
10.0675 13.479
10.0938 12.948
10.1201 13.167
10.1463 12.760
10.1726 12.906
10.1989 12.625
10.2251 12.281
10.2514 12.969
10.2777 12.469
10.3040 12.438
10.3302 12.281
10.3565 12.271
10.3828 12.500
10.4091 12.010
10.4353 12.146
10.4616 12.250
10.4879 11.875
10.5141 11.427
10.5404 11.604
10.5667 11.427
10.5930 12.031
10.6192 11.594
10.6455 11.167
10.6718 11.104
10.6980 11.281
10.7243 11.177
10.7506 10.969
10.7769 11.188
10.8031 10.698
10.8294 10.458
10.8557 10.521
10.8820 11.010
10.9082 11.333
10.9345 10.385
10.9608 10.281
10.9870 11.000
11.0133 10.396
11.0396 10.813
11.0659 9.521
11.0921 9.635
11.1184 10.333
11.1447 10.271
11.1709 9.594
11.1972 9.771
11.2235 9.958
11.2498 9.260
11.2760 9.229
11.3023 9.396
11.3286 9.833
11.3549 9.885
11.3811 10.052
11.4074 9.531
11.4337 9.375
11.4599 9.979
11.4862 9.542
11.5125 9.083
11.5388 9.292
11.5650 10.010
11.5913 9.313
11.6176 9.406
11.6438 9.740
11.6701 8.885
11.6964 8.917
11.7227 8.302
11.7489 8.792
11.7752 8.750
11.8015 8.313
11.8278 8.375
11.8540 8.531
11.8803 8.219
11.9066 8.510
11.9328 8.417
11.9591 8.938
11.9854 8.083
12.0117 8.740
12.0379 7.969
12.0642 7.625
12.0905 7.969
12.1167 8.625
12.1430 8.396
12.1693 7.813
12.1956 8.281
12.2218 8.000
12.2481 7.677
12.2744 7.938
12.3007 7.469
12.3269 7.385
12.3532 7.146
12.3795 7.385
12.4057 7.156
12.4320 7.188
12.4583 7.646
12.4846 7.438
12.5108 7.083
12.5371 7.542
12.5634 7.521
12.5896 7.490
12.6159 7.885
12.6422 8.146
12.6685 7.052
12.6947 6.927
12.7210 6.938
12.7473 7.302
12.7736 6.875
12.7998 7.469
12.8261 7.083
12.8524 7.656
12.8786 6.760
12.9049 7.542
12.9312 6.698
12.9575 7.115
12.9837 6.771
13.0100 7.042
13.0363 6.990
13.0625 7.000
13.0888 6.813
13.1151 6.688
13.1414 7.031
13.1676 6.552
13.1939 6.542
13.2202 6.469
13.2465 6.604
13.2727 5.958
13.2990 6.208
13.3253 6.240
13.3515 6.938
13.3778 5.979
13.4041 6.896
13.4304 6.604
13.4566 6.344
13.4829 6.781
13.5092 6.531
13.5354 6.115
13.5617 6.625
13.5880 6.542
13.6143 6.490
13.6405 6.500
13.6668 6.646
13.6931 6.708
13.7194 6.823
13.7456 5.979
13.7719 6.833
13.7982 6.906
13.8244 6.813
13.8507 6.969
13.8770 6.979
13.9033 7.417
13.9295 7.240
13.9558 7.833
13.9821 8.500
14.0083 9.635
14.0346 11.406
14.0609 12.677
14.0872 14.844
14.1134 17.031
14.1397 18.302
14.1660 17.802
14.1923 16.750
14.2185 15.083
14.2448 13.240
14.2711 12.010
14.2973 10.417
14.3236 8.927
14.3499 7.917
14.3762 7.781
14.4024 7.917
14.4287 6.792
14.4550 6.781
14.4812 6.281
14.5075 6.240
14.5338 5.990
14.5601 6.125
14.5863 6.177
14.6126 5.844
14.6389 5.927
14.6652 5.719
14.6914 6.063
14.7177 5.542
14.7440 6.073
14.7702 5.521
14.7965 5.813
14.8228 5.635
14.8491 5.813
14.8753 6.125
14.9016 5.833
14.9279 6.052
14.9542 5.875
14.9804 5.396
15.0067 6.000
15.0330 5.771
15.0592 5.667
15.0855 5.604
15.1118 5.292
15.1381 5.792
15.1643 5.833
15.1906 5.313
15.2169 5.438
15.2431 5.323
15.2694 5.958
15.2957 5.583
15.3220 5.781
15.3482 5.438
15.3745 5.750
15.4008 5.750
15.4271 5.979
15.4533 5.875
15.4796 5.208
15.5059 5.365
15.5321 5.427
15.5584 5.833
15.5847 5.542
15.6110 5.875
15.6372 5.594
15.6635 5.448
15.6898 5.594
15.7160 5.500
15.7423 5.490
15.7686 6.281
15.7949 5.802
15.8211 6.073
15.8474 5.375
15.8737 5.292
15.9000 5.281
15.9262 5.510
15.9525 5.385
15.9788 5.760
16.0050 5.969
16.0313 5.698
16.0576 5.677
16.0839 5.323
16.1101 5.490
16.1364 5.375
16.1627 5.771
16.1889 5.542
16.2152 5.854
16.2415 5.417
16.2678 5.510
16.2940 5.604
16.3203 5.260
16.3466 5.708
16.3729 5.448
16.3991 5.406
16.4254 5.813
16.4517 5.313
16.4779 5.906
16.5042 5.667
16.5305 5.333
16.5568 5.344
16.5830 5.313
16.6093 5.521
16.6356 5.531
16.6618 5.844
16.6881 5.396
16.7144 5.438
16.7407 5.354
16.7669 5.583
16.7932 5.271
16.8195 5.385
16.8458 5.677
16.8720 5.281
16.8983 5.167
16.9246 5.073
16.9508 5.656
16.9771 5.406
17.0034 5.302
17.0297 6.073
17.0559 5.469
17.0822 5.823
17.1085 5.052
17.1347 5.406
17.1610 5.375
17.1873 5.906
17.2136 5.292
17.2398 5.458
17.2661 5.323
17.2924 5.573
17.3187 5.438
17.3449 5.604
17.3712 6.417
17.3975 6.031
17.4237 5.448
17.4500 5.625
17.4763 5.740
17.5026 5.688
17.5288 5.583
17.5551 5.708
17.5814 5.479
17.6076 5.458
17.6339 5.094
17.6602 5.844
17.6865 5.448
17.7127 5.719
17.7390 5.406
17.7653 5.052
17.7916 5.031
17.8178 5.500
17.8441 5.385
17.8704 5.063
17.8966 5.365
17.9229 5.677
17.9492 5.385
17.9755 5.115
18.0017 5.177
18.0280 5.188
18.0543 5.240
18.0805 5.135
18.1068 5.500
18.1331 5.781
18.1594 5.479
18.1856 5.271
18.2119 5.646
18.2382 5.896
18.2645 5.417
18.2907 5.490
18.3170 5.417
18.3433 5.531
18.3695 5.917
18.3958 5.156
18.4221 5.583
18.4484 5.313
18.4746 5.844
18.5009 5.406
18.5272 5.479
18.5534 5.552
18.5797 5.354
18.6060 5.875
18.6323 5.542
18.6585 5.344
18.6848 5.708
18.7111 6.250
18.7374 5.625
18.7636 5.781
18.7899 5.729
18.8162 5.875
18.8424 5.604
18.8687 5.698
18.8950 5.823
18.9213 6.073
18.9475 5.615
18.9738 5.323
19.0001 5.427
19.0263 5.771
19.0526 5.365
19.0789 5.542
19.1052 5.521
19.1314 5.771
19.1577 5.635
19.1840 5.573
19.2103 5.052
19.2365 5.656
19.2628 5.583
19.2891 5.417
19.3153 5.521
19.3416 5.375
19.3679 5.302
19.3942 5.365
19.4204 5.229
19.4467 5.375
19.4730 5.302
19.4992 5.365
19.5255 4.990
19.5518 5.448
19.5781 5.646
19.6043 5.396
19.6306 5.719
19.6569 5.542
19.6832 5.760
19.7094 5.594
19.7357 5.760
19.7620 5.635
19.7882 5.552
19.8145 6.073
19.8408 5.719
19.8671 5.948
19.8933 5.333
19.9196 5.594
19.9459 6.010
19.9721 5.406
19.9984 5.063
20.0247 6.010
20.0510 5.990
20.0772 6.063
20.1035 6.323
20.1298 6.396
20.1561 6.594
20.1823 6.906
20.2086 7.177
20.2349 7.323
20.2611 7.750
20.2874 7.844
20.3137 9.000
20.3400 8.625
20.3662 7.844
20.3925 7.344
20.4188 7.302
20.4450 6.760
20.4713 6.938
20.4976 6.688
20.5239 6.240
20.5501 6.302
20.5764 6.313
20.6027 5.792
20.6290 6.094
20.6552 5.729
20.6815 5.896
20.7078 5.344
20.7340 5.813
20.7603 5.781
20.7866 5.208
20.8129 5.458
20.8391 5.458
20.8654 5.708
20.8917 6.240
20.9179 5.594
20.9442 5.802
20.9705 5.771
20.9968 5.510
21.0230 5.865
21.0493 5.667
21.0756 5.313
21.1019 5.948
21.1281 5.854
21.1544 5.385
21.1807 5.396
21.2069 5.625
21.2332 5.292
21.2595 5.875
21.2858 5.896
21.3120 5.188
21.3383 5.823
21.3646 5.896
21.3908 5.729
21.4171 5.500
21.4434 5.604
21.4697 6.052
21.4959 5.552
21.5222 6.042
21.5485 6.240
21.5748 5.604
21.6010 5.323
21.6273 5.740
21.6536 5.573
21.6798 5.958
21.7061 6.125
21.7324 5.510
21.7587 5.896
21.7849 6.104
21.8112 5.917
21.8375 5.885
21.8637 5.948
21.8900 5.542
21.9163 5.604
21.9426 5.698
21.9688 5.531
21.9951 5.885
22.0214 5.813
22.0477 5.854
22.0739 5.406
22.1002 6.135
22.1265 5.917
22.1527 5.781
22.1790 5.604
22.2053 5.573
22.2316 5.969
22.2578 5.448
22.2841 5.531
22.3104 5.698
22.3366 5.813
22.3629 5.333
22.3892 5.708
22.4155 5.750
22.4417 5.760
22.4680 6.344
22.4943 6.427
22.5206 5.896
22.5468 5.292
22.5731 5.927
22.5994 5.448
22.6256 5.646
22.6519 5.698
22.6782 5.708
22.7045 5.958
22.7307 5.781
22.7570 5.604
22.7833 6.250
22.8096 5.719
22.8358 5.854
22.8621 5.823
22.8884 4.708
22.9146 6.125
22.9409 5.792
22.9672 5.698
22.9935 5.583
23.0197 5.594
23.0460 5.729
23.0723 6.229
23.0985 5.573
23.1248 6.000
23.1511 6.063
23.1774 5.615
23.2036 5.198
23.2299 5.573
23.2562 5.854
23.2825 5.677
23.3087 5.969
23.3350 5.865
23.3613 5.479
23.3875 5.958
23.4138 6.073
23.4401 5.875
23.4664 5.688
23.4926 5.719
23.5189 5.802
23.5452 5.823
23.5714 5.698
23.5977 5.802
23.6240 5.385
23.6503 6.094
23.6765 6.094
23.7028 5.646
23.7291 5.719
23.7554 5.875
23.7816 6.219
23.8079 5.885
23.8342 6.323
23.8604 5.823
23.8867 6.167
23.9130 5.792
23.9393 5.948
23.9655 5.604
23.9918 6.865
24.0181 5.813
24.0443 6.406
24.0706 6.396
24.0969 5.969
24.1232 5.927
24.1494 5.792
24.1757 5.688
24.2020 6.010
24.2283 6.135
24.2545 6.344
24.2808 6.854
24.3071 5.958
24.3333 6.771
24.3596 6.031
24.3859 6.229
24.4122 5.969
24.4384 6.635
24.4647 6.708
24.4910 7.219
24.5172 7.646
24.5435 8.302
24.5698 9.281
24.5961 9.573
24.6223 11.146
24.6486 11.302
24.6749 11.031
24.7012 11.365
24.7274 10.958
24.7537 9.365
24.7800 8.802
24.8062 7.948
24.8325 7.563
24.8588 6.958
24.8851 6.750
24.9113 6.177
24.9376 6.792
24.9639 6.667
24.9901 6.646
25.0164 6.302
25.0427 6.594
25.0690 5.750
25.0952 5.948
25.1215 6.146
25.1478 5.667
25.1741 5.792
25.2003 6.479
25.2266 6.052
25.2529 5.865
25.2791 5.865
25.3054 5.823
25.3317 6.510
25.3580 5.260
25.3842 5.760
25.4105 5.792
25.4368 5.688
25.4630 6.094
25.4893 6.010
25.5156 6.490
25.5419 5.688
25.5681 6.115
25.5944 6.083
25.6207 6.083
25.6470 5.604
25.6732 5.458
25.6995 5.917
25.7258 5.667
25.7520 5.750
25.7783 5.844
25.8046 5.708
25.8309 6.031
25.8571 6.115
25.8834 5.896
25.9097 5.917
25.9359 6.260
25.9622 6.135
25.9885 5.875
26.0148 6.385
26.0410 6.281
26.0673 6.458
26.0936 5.865
26.1199 5.885
26.1461 6.250
26.1724 5.667
26.1987 5.719
26.2249 6.052
26.2512 5.958
26.2775 5.854
26.3038 6.208
26.3300 6.281
26.3563 6.167
26.3826 6.260
26.4088 6.375
26.4351 5.833
26.4614 6.021
26.4877 6.052
26.5139 6.000
26.5402 5.969
26.5665 5.719
26.5928 6.198
26.6190 6.458
26.6453 6.302
26.6716 6.583
26.6978 5.813
26.7241 6.167
26.7504 5.969
26.7767 6.177
26.8029 5.740
26.8292 5.958
26.8555 6.000
26.8817 5.708
26.9080 6.094
26.9343 6.052
26.9606 5.688
26.9868 5.896
27.0131 5.875
27.0394 6.104
27.0657 6.167
27.0919 5.990
27.1182 5.885
27.1445 6.177
27.1707 6.063
27.1970 5.771
27.2233 6.083
27.2496 6.031
27.2758 5.865
27.3021 5.490
27.3284 6.313
27.3546 6.219
27.3809 5.896
27.4072 6.229
27.4335 6.375
27.4597 6.521
27.4860 6.115
27.5123 6.083
27.5386 6.313
27.5648 5.865
27.5911 6.198
27.6174 6.229
27.6436 6.510
27.6699 6.313
27.6962 6.094
27.7225 5.698
27.7487 5.896
27.7750 6.073
27.8013 5.885
27.8275 6.042
27.8538 6.094
27.8801 6.438
27.9064 6.219
27.9326 6.156
27.9589 6.573
27.9852 6.281
28.0115 5.646
28.0377 6.042
28.0640 6.094
28.0903 6.344
28.1165 6.542
28.1428 6.667
28.1691 6.000
28.1954 6.073
28.2216 6.979
28.2479 6.927
28.2742 6.542
28.3004 6.906
28.3267 6.385
28.3530 7.135
28.3793 7.938
28.4055 7.969
28.4318 8.802
28.4581 8.896
28.4844 10.052
28.5106 10.948
28.5369 11.188
28.5632 11.490
28.5894 11.333
28.6157 10.677
28.6420 10.198
28.6683 9.438
28.6945 9.094
28.7208 7.885
28.7471 8.375
28.7733 7.385
28.7996 7.510
28.8259 7.615
28.8522 7.604
28.8784 7.000
28.9047 7.177
28.9310 6.677
28.9573 7.115
28.9835 7.302
29.0098 6.958
29.0361 7.365
29.0623 7.656
29.0886 8.875
29.1149 9.438
29.1412 10.396
29.1674 11.792
29.1937 13.115
29.2200 14.094
29.2462 13.448
29.2725 13.719
29.2988 12.260
29.3251 10.646
29.3513 9.458
29.3776 8.813
29.4039 8.719
29.4302 8.031
29.4564 6.833
29.4827 7.500
29.5090 7.292
29.5352 6.729
29.5615 7.000
29.5878 6.313
29.6141 6.344
29.6403 5.781
29.6666 5.958
29.6929 6.448
29.7191 6.271
29.7454 6.604
29.7717 6.083
29.7980 6.031
29.8242 5.656
29.8505 6.583
29.8768 6.198
29.9031 6.188
29.9293 6.375
29.9556 5.875
29.9819 5.813
30.0081 6.094
30.0344 5.698
30.0607 6.313
30.0870 6.010
30.1132 6.385
30.1395 6.073
30.1658 6.177
30.1920 6.188
30.2183 6.448
30.2446 5.844
30.2709 6.000
30.2971 5.927
30.3234 5.969
30.3497 6.094
30.3760 5.385
30.4022 6.146
30.4285 6.333
30.4548 6.208
30.4810 5.594
30.5073 6.094
30.5336 5.583
30.5599 5.615
30.5861 5.969
30.6124 6.031
30.6387 6.063
30.6650 5.438
30.6912 6.698
30.7175 6.156
30.7438 6.146
30.7700 6.365
30.7963 5.771
30.8226 6.458
30.8489 6.292
30.8751 5.719
30.9014 5.729
30.9277 5.885
30.9539 6.427
30.9802 6.354
31.0065 6.604
31.0328 5.813
31.0590 5.688
31.0853 5.521
31.1116 5.688
31.1379 6.292
31.1641 5.865
31.1904 5.844
31.2167 6.313
31.2429 6.042
31.2692 5.750
31.2955 6.250
31.3218 5.792
31.3480 6.354
31.3743 5.448
31.4006 5.948
31.4268 6.167
31.4531 5.906
31.4794 5.833
31.5057 5.927
31.5319 5.708
31.5582 6.208
31.5845 5.823
31.6108 5.865
31.6370 6.104
31.6633 5.927
31.6896 5.969
31.7158 5.927
31.7421 6.188
31.7684 6.229
31.7947 6.354
31.8209 6.448
31.8472 6.375
31.8735 6.854
31.8997 6.813
31.9260 7.396
31.9523 7.896
31.9786 7.719
32.0048 8.417
32.0311 8.948
32.0574 9.563
32.0837 10.646
32.1099 10.865
32.1362 12.500
32.1625 11.885
32.1887 12.979
32.2150 13.052
32.2413 12.146
32.2676 10.792
32.2938 10.135
32.3201 9.552
32.3464 8.969
32.3726 8.521
32.3989 7.969
32.4252 8.104
32.4515 7.583
32.4777 7.510
32.5040 7.063
32.5303 7.333
32.5566 8.354
32.5828 8.354
32.6091 8.375
32.6354 8.146
32.6616 7.917
32.6879 7.615
32.7142 7.375
32.7405 7.500
32.7667 6.885
32.7930 7.052
32.8193 6.708
32.8455 6.167
32.8718 6.073
32.8981 6.125
32.9244 6.146
32.9506 6.135
32.9769 5.896
33.0032 6.281
33.0295 6.115
33.0557 5.000
33.0820 5.510
33.1083 5.729
33.1345 5.458
33.1608 5.656
33.1871 5.250
33.2134 5.917
33.2396 5.698
33.2659 5.792
33.2922 5.344
33.3184 5.010
33.3447 5.563
33.3710 5.552
33.3973 5.375
33.4235 5.500
33.4498 5.427
33.4761 5.271
33.5024 6.177
33.5286 5.229
33.5549 5.469
33.5812 5.313
33.6074 5.198
33.6337 5.708
33.6600 5.281
33.6863 5.604
33.7125 5.292
33.7388 5.448
33.7651 4.979
33.7913 5.406
33.8176 5.438
33.8439 5.375
33.8702 5.344
33.8964 5.156
33.9227 5.271
33.9490 5.344
33.9753 5.583
34.0015 5.604
34.0278 5.188
34.0541 5.292
34.0803 5.104
34.1066 5.292
34.1329 5.219
34.1592 5.229
34.1854 5.531
34.2117 5.146
34.2380 5.635
34.2642 5.313
34.2905 5.354
34.3168 5.406
34.3431 5.698
34.3693 5.667
34.3956 5.167
34.4219 5.375
34.4482 4.948
34.4744 5.344
34.5007 5.885
34.5270 5.094
34.5532 5.406
34.5795 5.229
34.6058 5.198
34.6321 5.729
34.6583 5.469
34.6846 5.417
34.7109 5.000
34.7371 5.427
34.7634 4.990
34.7897 5.125
34.8160 5.240
34.8422 5.271
34.8685 4.958
34.8948 5.188
34.9211 5.458
34.9473 5.146
34.9736 5.042
34.9999 4.875
35.0261 4.573
35.0524 5.198
35.0787 4.979
35.1050 5.229
35.1312 4.948
35.1575 5.260
35.1838 5.031
35.2100 5.250
35.2363 4.531
35.2626 5.208
35.2889 4.927
35.3151 4.823
35.3414 4.896
35.3677 5.281
35.3940 4.344
35.4202 5.354
35.4465 5.292
35.4728 5.010
35.4990 5.198
35.5253 4.969
35.5516 4.552
35.5779 4.823
35.6041 5.188
35.6304 4.979
35.6567 5.260
35.6829 5.417
35.7092 4.750
35.7355 4.896
35.7618 4.979
35.7880 5.104
35.8143 4.906
35.8406 5.000
35.8669 5.010
35.8931 4.938
35.9194 4.542
35.9457 4.875
35.9719 4.583
35.9982 5.396
36.0245 5.177
36.0508 4.802
36.0770 4.885
36.1033 5.177
36.1296 4.917
36.1558 4.865
36.1821 4.938
36.2084 4.729
36.2347 4.958
36.2609 4.823
36.2872 5.021
36.3135 5.177
36.3398 4.708
36.3660 4.573
36.3923 4.760
36.4186 5.031
36.4448 4.667
36.4711 4.802
36.4974 4.906
36.5237 5.021
36.5499 5.073
36.5762 5.219
36.6025 4.698
36.6287 5.177
36.6550 4.771
36.6813 5.229
36.7076 5.042
36.7338 5.073
36.7601 5.094
36.7864 4.958
36.8127 4.990
36.8389 4.948
36.8652 4.698
36.8915 4.917
36.9177 5.469
36.9440 5.229
36.9703 5.240
36.9966 5.042
37.0228 4.750
37.0491 5.094
37.0754 5.094
37.1016 5.427
37.1279 4.615
37.1542 4.927
37.1805 5.292
37.2067 4.583
37.2330 5.042
37.2593 4.448
37.2856 5.042
37.3118 4.979
37.3381 4.729
37.3644 4.729
37.3906 4.740
37.4169 4.885
37.4432 4.813
37.4695 4.760
37.4957 4.448
37.5220 4.677
37.5483 5.000
37.5745 4.927
37.6008 4.969
37.6271 4.510
37.6534 4.427
37.6796 4.760
37.7059 5.135
37.7322 4.813
37.7585 5.135
37.7847 4.906
37.8110 4.802
37.8373 5.010
37.8635 4.521
37.8898 4.854
37.9161 4.844
37.9424 5.167
37.9686 4.813
37.9949 5.156
38.0212 4.875
38.0474 5.490
38.0737 5.313
38.1000 4.833
38.1263 4.969
38.1525 5.490
38.1788 5.333
38.2051 4.948
38.2314 5.469
38.2576 5.010
38.2839 5.271
38.3102 5.385
38.3364 5.427
38.3627 5.250
38.3890 5.719
38.4153 5.240
38.4415 5.750
38.4678 5.740
38.4941 6.260
38.5204 6.240
38.5466 6.323
38.5729 7.250
38.5992 6.594
38.6254 6.802
38.6517 7.167
38.6780 6.719
38.7043 6.500
38.7305 6.438
38.7568 6.094
38.7831 6.469
38.8093 5.781
